 h1    1.00794    31
 1215.6700	4.6986e+08  4.1641e-01
 1025.7222	5.5751e+07  7.9142e-02
  972.53674	1.2785e+07  2.9006e-02
  949.74298	4.1250e+06  1.3945e-02
  937.80340	1.6440e+06  7.8035e-03
  930.748200	7.5684e+05  4.8164e-03
  926.225637	3.8694e+05  3.1850e-03
  923.150297	2.1425e+05  2.2172e-03
  920.963022	1.2631e+05  1.6062e-03
  919.351348	7.8340e+04  1.2011e-03
  918.129310	5.0659e+04  9.2190e-04
  917.180514	3.3927e+04  7.2310e-04
  916.429076	2.3409e+04  5.7769e-04
  915.823751	1.6572e+04  4.6886e-04
  915.328932	1.1997e+04  3.8577e-04
  914.919242	8.8574e+03  3.2124e-04
  914.576201	6.6540e+03  2.7035e-04
  914.286086	5.0767e+03  2.2967e-04
  914.038537	3.9276e+03  1.9677e-04
  913.825609	3.0769e+03  1.6987e-04
  913.641133	2.4380e+03  1.4767e-04
  913.480251	1.9519e+03  1.2917e-04
  913.339105	1.5776e+03  1.1364e-04
  913.214592	1.2862e+03  1.0051e-04
  913.104195	1.0571e+03  8.9321e-05
  913.005859	8.7524e+02  7.9736e-05
  912.917887	7.2967e+02  7.1476e-05
  912.838873	6.1221e+02  6.4319e-05
  912.767639	5.1673e+02  5.8087e-05
  912.703197	4.3857e+02  5.2635e-05
  912.644709	3.7418e+02  4.7845e-05

# first row: ion | atomic mass (uma) | no. of transitions
# columns: wavelength (A) | Gamma (1/s) | f_osc
# multiplet averaged quantities
# SOURCE: NIST database: http://physics.nist.gov/PhysRefData/ASD/lines_form.html
# query parameters: ion=H I, output ordering=multiplet
